Magnesite (JCPDS 080479, EOS n/a)
2 2.505, 194.0, 5.0 1.6208
d (A)       I/I0    h   k   l
2.742       100     1   0   4
2.503        18     0   0   6
2.318         4     1   1   0     
2.102        45     1   1   3
1.939        12     2   0   2  
1.769         4     0   2   4   
1.700        35     1   1   6      
1.510         4     2   1   1    
1.488         6     1   2   2      