Zirconia (JCPDS 27-997, EOS n/a)  !
2 2.505, 194.0, 5.0 1.6208 this line wrong
d (A)       I/I0    h   k   l
2.93        100     1   1   1
2.55         25     2   0   0
1.801        50     2   2   0
1.534        20     3   1   1
1.471         5     2   2   2
1.270         5     4   0   0
1.167         5     3   3   1
1.135         5     4   2   0
1.038         1     4   2   2